   INTERVAL        nm        cm-1  Irradiance
          1     121.5     82304.5   0.400E+12
          2     116.7     85726.5   1.030E+08
          3     117.3     85251.5   2.660E+08
          4     117.9     84781.7   1.120E+08
          5     118.7     84281.5   1.240E+08
          6     119.4     83752.1   1.820E+08
          7     120.2     83229.3   1.900E+08
          8     120.8     82747.2   7.400E+08
          9     121.6     82236.8   2.280E+09
         10     122.3     81732.7   3.670E+09
         11     123.1     81234.8   2.352E+09
         12     123.8     80742.8   1.841E+09
         13     124.6     80256.8   1.745E+09
         14     125.4     79744.8   1.596E+09
         15     126.2     79239.3   2.140E+09
         16     127.0     78740.2   1.841E+09
         17     127.8     78247.3   1.153E+09
         18     128.6     77760.5   1.036E+09
         19     129.4     77249.9   1.479E+09
         20     130.3     76746.0   7.076E+09
         21     131.1     76248.6   4.596E+09
         22     132.0     75757.6   1.576E+09
         23     132.9     75272.9   5.695E+09
         24     133.8     74766.4   9.075E+09
         25     134.6     74266.6   2.228E+09
         26     135.6     73773.5   2.760E+09
         27     136.5     73260.1   1.874E+09
         28     137.4     72753.7   2.090E+09
         29     138.4     72254.3   3.657E+09
         30     139.9     71505.2   9.634E+09
         31     141.8     70521.9   7.296E+09
         32     143.9     69516.9   8.385E+09
         33     145.9     68516.6   1.051E+10
         34     148.1     67521.9   1.492E+10
         35     150.4     66511.5   1.576E+10
         36     152.6     65509.3   2.275E+10
         37     155.0     64516.1   3.988E+10
         38     157.4     63512.2   3.756E+10
         39     160.0     62500.0   4.139E+10
         40     162.6     61500.6   5.964E+10
         41     165.3     60496.1   9.503E+10
         42     168.1     59488.4   1.118E+11
         43     170.9     58496.6   1.518E+11
         44     173.1     57753.4   1.251E+11
         45     174.6     57257.4   1.333E+11
         46     176.2     56753.7   1.765E+11
         47     177.8     56243.0   2.215E+11
         48     179.4     55741.4   2.476E+11
         49     181.0     55248.6   3.372E+11
         50     182.7     54734.5   3.619E+11
         51     184.3     54259.4   3.587E+11
         52     186.1     53734.6   4.288E+11
         53     187.8     53248.1   5.418E+11
         54     189.6     52742.6   6.527E+11
         55     191.4     52246.6   7.425E+11
         56     193.2     51759.8   7.525E+11
         57     195.1     51255.8   1.062E+12
         58     197.0     50761.4   1.222E+12
         59     199.0     50251.3   1.351E+12
         60     201.0     49751.2   1.656E+12
         61     203.1     49236.8   1.914E+12
         62     205.1     48756.7   2.377E+12
         63     207.3     48239.3   2.890E+12
         64     209.4     47755.5   4.868E+12
         65     211.6     47259.0   7.960E+12
         66     213.9     46750.8   9.108E+12
         67     216.2     46253.5   8.884E+12
         68     218.6     45745.7   1.166E+13
         69     221.0     45248.9   1.205E+13
         70     223.5     44742.7   1.675E+13
         71     226.0     44247.8   1.350E+13
         72     228.6     43744.5   1.434E+13
         73     231.2     43252.6   1.596E+13
         74     233.9     42753.3   1.415E+13
         75     236.7     42247.6   1.680E+13
         76     239.5     41753.7   1.434E+13
         77     242.4     41254.1   2.214E+13
         78     245.4     40749.8   2.052E+13
         79     248.5     40241.4   2.047E+13
         80     251.6     39745.6   1.934E+13
         81     254.8     39246.5   2.844E+13
         82     258.1     38744.7   5.095E+13
         83     261.4     38255.5   4.444E+13
         84     264.9     37750.1   1.133E+14
         85     268.5     37243.9   1.210E+14
         86     272.1     36751.2   1.139E+14
         87     275.9     36245.0   1.045E+14
         88     279.7     35752.6   7.435E+13
         89     283.7     35248.5   1.508E+14
         90     287.8     34746.4   2.142E+14
         91     292.0     34246.6   3.520E+14
         92     296.3     33749.6   3.425E+14
         93     300.8     33244.7   3.225E+14
         94     305.3     32754.7   4.364E+14
         95     310.0     32258.1   4.981E+14
         96     315.0     31746.0   5.540E+14
         97     320.0     31250.0   6.120E+14
         98     325.0     30769.2   7.065E+14
         99     330.0     30303.0   8.511E+14
        100     335.0     29850.7   7.962E+14
        101     340.0     29411.8   8.381E+14
        102     345.0     28985.5   8.222E+14
        103     350.0     28571.4   8.643E+14
        104     355.0     28169.0   9.231E+14
        105     360.0     27777.8   8.427E+14
        106     365.0     27397.3   1.038E+15
        107     370.0     27027.0   1.109E+15
        108     375.0     26666.7   9.973E+14
        109     380.0     26315.8   1.139E+15
        110     385.0     25974.0   8.962E+14
        111     390.0     25641.0   1.171E+15
        112     395.0     25316.5   9.388E+14
        113     400.0     25000.0   1.653E+15
        114     405.0     24691.4   1.728E+15
        115     410.0     24390.2   1.764E+15
        116     415.0     24096.4   1.917E+15
        117     420.0     23809.5   1.950E+15
        118     425.0     23529.4   1.810E+15
        119     430.0     23255.8   1.670E+15
        120     435.0     22988.5   1.980E+15
        121     440.0     22727.3   2.020E+15
        122     445.0     22471.9   2.180E+15
        123     450.0     22222.2   2.360E+15
        124     455.0     21978.0   2.310E+15
        125     460.0     21739.1   2.390E+15
        126     465.0     21505.4   2.380E+15
        127     470.0     21276.6   2.390E+15
        128     475.0     21052.6   2.440E+15
        129     480.0     20833.3   2.510E+15
        130     485.0     20618.6   2.300E+15
        131     490.0     20408.2   2.390E+15
        132     495.0     20202.0   2.480E+15
        133     500.0     20000.0   2.400E+15
        134     505.0     19802.0   2.460E+15
        135     510.0     19607.8   2.490E+15
        136     515.0     19417.5   2.320E+15
        137     520.0     19230.8   2.390E+15
        138     525.0     19047.6   2.420E+15
        139     530.0     18867.9   2.550E+15
        140     535.0     18691.6   2.510E+15
        141     540.0     18518.5   2.490E+15
        142     545.0     18348.6   2.550E+15
        143     550.0     18181.8   2.530E+15
        144     555.0     18018.0   2.540E+15
        145     560.0     17857.1   2.500E+15
        146     565.0     17699.1   2.570E+15
        147     570.0     17543.9   2.580E+15
        148     575.0     17391.3   2.670E+15
        149     580.0     17241.4   2.670E+15
        150     585.0     17094.0   2.700E+15
        151     590.0     16949.2   2.620E+15
        152     595.0     16806.7   2.690E+15
        153     600.0     16666.7   2.630E+15
        154     605.0     16528.9   2.680E+15
        155     610.0     16393.4   2.660E+15
        156     615.0     16260.2   2.590E+15
        157     620.0     16129.0   2.690E+15
        158     625.0     16000.0   2.610E+15
        159     630.0     15873.0   2.620E+15
        160     635.0     15748.0   2.620E+15
        161     640.0     15625.0   2.630E+15
        162     645.0     15503.9   2.600E+15
        163     650.0     15384.6   2.550E+15
        164     655.0     15267.2   2.480E+15
        165     660.0     15151.5   2.570E+15
        166     665.0     15037.6   2.610E+15
        167     670.0     14925.4   2.610E+15
        168     675.0     14814.8   2.620E+15
        169     680.0     14705.9   2.620E+15
        170     685.0     14598.5   2.570E+15
        171     690.0     14492.8   2.520E+15
        172     695.0     14388.5   2.600E+15
        173     700.0     14285.7   2.580E+15
        174     705.0     14184.4   2.520E+15
        175     710.0     14084.5   2.510E+15
        176     715.0     13986.0   2.480E+15
        177     720.0     13888.9   2.450E+15
        178     725.0     13793.1   2.480E+15
        179     730.0     13698.6   2.450E+15
        180     735.0     13605.4   2.440E+15
        181     740.0     13513.5   2.390E+15
        182     745.0     13422.8   2.400E+15
        183     750.0     13333.3   2.410E+15
        184     755.0     13245.0   2.400E+15
        185     760.0     13157.9   2.380E+15
        186     765.0     13071.9   2.340E+15
        187     770.0     12987.0   2.320E+15
        188     775.0     12903.2   2.300E+15
        189     780.0     12820.5   2.330E+15
        190     785.0     12738.9   2.340E+15
        191     790.0     12658.2   2.290E+15
        192     795.0     12578.6   2.290E+15
        193     800.0     12500.0   2.270E+15
        194     805.0     12422.4   2.270E+15
        195     810.0     12345.7   2.200E+15
        196     815.0     12269.9   2.220E+15
        197     820.0     12195.1   2.180E+15
        198     825.0     12121.2   2.200E+15
        199     830.0     12048.2   2.140E+15
        200     835.0     11976.0   2.140E+15
        201     840.0     11904.8   2.130E+15
        202     845.0     11834.3   2.090E+15
        203     850.0     11764.7   2.050E+15

For intervals 1-10 Ackerman.

For intervals 11-116, Lean et al., JGR 102, 29939-29956 (1997)
average between solar max and solar min.

For intervals 117-203, WMO Report No. 16, Vol. 1, pp. 355-362, (1985).
